2,2',4,4'-Tetrahydroxybiphenyl
  ACD/Labs04162117302D
NIST Mass Spectrometry Data Center
 16 17  0  0  0  0  0  0  0  0  1 V2000
   21.0742   -5.7384    0.0000 O   0  0  0  0  0  0  0  0  0  0  0  0
   21.7440   -6.9010    0.0000 C   0  0  0  0  0  0  0  0  0  0  0  0
   21.0836   -8.0544    0.0000 C   0  0  0  0  0  0  0  0  0  0  0  0
   21.7532   -9.2077    0.0000 C   0  0  0  0  0  0  0  0  0  0  0  0
   23.0832   -9.2077    0.0000 C   0  0  0  0  0  0  0  0  0  0  0  0
   23.7436   -8.0729    0.0000 C   0  0  0  0  0  0  0  0  0  0  0  0
   23.0832   -6.9196    0.0000 C   0  0  0  0  0  0  0  0  0  0  0  0
   25.0737   -8.0729    0.0000 O   0  0  0  0  0  0  0  0  0  0  0  0
   19.7628   -8.0729    0.0000 C   0  0  0  0  0  0  0  0  0  0  0  0
   19.0931   -9.2355    0.0000 C   0  0  0  0  0  0  0  0  0  0  0  0
   17.7817   -9.2355    0.0000 C   0  0  0  0  0  0  0  0  0  0  0  0
   17.0934   -8.0916    0.0000 C   0  0  0  0  0  0  0  0  0  0  0  0
   17.7259   -6.9475    0.0000 C   0  0  0  0  0  0  0  0  0  0  0  0
   19.0559   -6.9475    0.0000 C   0  0  0  0  0  0  0  0  0  0  0  0
   15.7727   -8.1009    0.0000 O   0  0  0  0  0  0  0  0  0  0  0  0
   19.7628  -10.3796    0.0000 O   0  0  0  0  0  0  0  0  0  0  0  0
  1  2  1  0  0  0  0
  2  3  1  0  0  0  0
  2  7  2  0  0  0  0
  3  4  2  0  0  0  0
  3  9  1  0  0  0  0
  4  5  1  0  0  0  0
  5  6  2  0  0  0  0
  6  7  1  0  0  0  0
  6  8  1  0  0  0  0
  9 10  1  0  0  0  0
  9 14  2  0  0  0  0
 10 11  2  0  0  0  0
 10 16  1  0  0  0  0
 11 12  1  0  0  0  0
 12 13  2  0  0  0  0
 12 15  1  0  0  0  0
 13 14  1  0  0  0  0
M  END
$$$$
